; -*- coding: cp1252; fmf-version: 1.0 -*-
[*reference]
title	:optical constants of ITO_ref.fmf
short name	:ITO_ref.fmf
long name	:ITO_ref.fmf
creator	:chaenisch
creator fullname	:Christian Haenisch
created	:2022-03-21 23:02:00+01:00
place	:
measurement type	:optical constants
method	:unknown
comment	:
from literature	:TRUE
references	: R. J. Moerland and J. P. Hoogenboom, Optica 3, 112-117 (2016) see SI
references comment	:
error	:FALSE
error code	:NaN

[processing parameters]
substrate temperature	:0 degC
wafer number	:

[setup]
fit program	:0
fit program version	:0
wrapper	:0
wrapper program version	:0

[batches]
batch number material 1	:
batch number material 2	:
batch number material 3	:
material class 1	:
material class 2	:
material class 3	:

[input parameters]
;evaluation
spectral range end	  :
spectral range start	  :
spectral resolution	  : NaN

spectral measurement ID	:
substrate thickness	:0 mm
substrate file	:
substrate file ID	:
used spectra and thickness	:
optimization type	:
relative error R	:0%
relative error T	:0%

[output parameter]
deviation	:
optimized thickness	:
mean absolute error n	:NaN%
mean absolute error k	:NaN%
max absolute error n	:NaN
max absolute error k	:NaN
comment	:
material type : isotropic

[*data definitions]
wavelength	:\lambda [nm]
n	:n(\lambda)
k	:k(\lambda)

[*data]
401.047791	2.06348	0.01245
402.637024	2.06099	0.011971
404.226227	2.05855	0.011515
405.81543	2.056157	0.011082
407.404633	2.053809	0.010669
408.993835	2.051504	0.010277
410.583008	2.04924	0.009903
412.17218	2.047016	0.009547
413.761383	2.04483	0.009208
415.350525	2.04268	0.008885
416.939636	2.040565	0.008577
418.528809	2.038484	0.008284
420.11792	2.036436	0.008004
421.707092	2.03442	0.007737
423.296143	2.032434	0.007482
424.885254	2.030478	0.007239
426.474365	2.028551	0.007007
428.063416	2.026651	0.006786
429.652496	2.024778	0.006574
431.241516	2.022931	0.006372
432.830566	2.02111	0.006179
434.419586	2.019313	0.005995
436.008545	2.01754	0.005819
437.597565	2.015789	0.005651
439.186523	2.014062	0.00549
440.775482	2.012356	0.005336
442.36441	2.010671	0.005188
443.953308	2.009007	0.005048
445.542236	2.007362	0.004913
447.131104	2.005738	0.004784
448.719971	2.004132	0.004661
450.308777	2.002544	0.004543
451.897614	2.000974	0.00443
453.48642	1.999421	0.004322
455.075195	1.997886	0.004218
456.663971	1.996366	0.004119
458.252686	1.994863	0.004024
459.8414	1.993375	0.003934
461.430084	1.991902	0.003847
463.018738	1.990445	0.003764
464.607361	1.989001	0.003684
466.195984	1.987571	0.003608
467.784576	1.986155	0.003535
469.373138	1.984752	0.003465
470.96167	1.983362	0.003398
472.550201	1.981985	0.003334
474.138672	1.98062	0.003272
475.727112	1.979266	0.003214
477.315521	1.977924	0.003157
478.903961	1.976594	0.003104
480.492279	1.975275	0.003052
482.080627	1.973966	0.003003
483.668945	1.972668	0.002956
485.257233	1.97138	0.002911
486.845459	1.970102	0.002868
488.433655	1.968834	0.002827
490.02182	1.967575	0.002787
491.609955	1.966325	0.00275
493.19809	1.965084	0.002714
494.786194	1.963853	0.002679
496.374207	1.962629	0.002647
497.962219	1.961414	0.002616
499.550201	1.960207	0.002586
501.138123	1.959008	0.002557
502.726013	1.957817	0.002531
504.313873	1.956633	0.002505
505.901703	1.955457	0.00248
507.489502	1.954288	0.002457
509.07724	1.953126	0.002435
510.664948	1.951971	0.002414
512.252563	1.950822	0.002394
513.84021	1.94968	0.002376
515.427856	1.948544	0.002358
517.015381	1.947415	0.002341
518.602905	1.946291	0.002325
520.190308	1.945173	0.00231
521.77771	1.944062	0.002296
523.365112	1.942955	0.002283
524.952454	1.941854	0.002271
526.539734	1.940759	0.002259
528.127014	1.939669	0.002249
529.714172	1.938583	0.002239
531.301331	1.937503	0.002229
532.888428	1.936428	0.002221
534.475464	1.935357	0.002213
536.0625	1.934291	0.002206
537.649475	1.933229	0.002199
539.236389	1.932172	0.002193
540.823242	1.931119	0.002188
542.410034	1.93007	0.002184
543.996826	1.929026	0.002179
545.583557	1.927985	0.002176
547.170227	1.926948	0.002173
548.756775	1.925915	0.00217
550.343384	1.924885	0.002168
551.929871	1.923859	0.002167
553.516296	1.922837	0.002166
555.102722	1.921818	0.002166
556.689087	1.920802	0.002166
558.275391	1.91979	0.002166
559.861633	1.91878	0.002167
561.447815	1.917774	0.002168
563.033936	1.916771	0.00217
564.619995	1.91577	0.002172
566.205994	1.914773	0.002175
567.791931	1.913778	0.002178
569.377808	1.912786	0.002181
570.963684	1.911796	0.002185
572.549438	1.910809	0.002189
574.135193	1.909825	0.002193
575.720825	1.908843	0.002198
577.306458	1.907863	0.002203
578.891968	1.906885	0.002208
580.477417	1.90591	0.002214
582.062866	1.904937	0.00222
583.648254	1.903966	0.002227
585.233521	1.902997	0.002233
586.818726	1.902029	0.00224
588.403931	1.901064	0.002248
589.989014	1.900101	0.002255
591.574036	1.899139	0.002263
593.158997	1.89818	0.002271
594.743896	1.897221	0.00228
596.328735	1.896265	0.002288
597.913452	1.89531	0.002297
599.498169	1.894357	0.002306
601.082825	1.893405	0.002316
602.667358	1.892454	0.002326
604.251831	1.891505	0.002336
605.836304	1.890557	0.002346
607.420654	1.889611	0.002356
609.004944	1.888666	0.002367
610.589111	1.887722	0.002378
612.173218	1.886779	0.002389
613.757324	1.885837	0.0024
615.341309	1.884897	0.002412
616.925232	1.883957	0.002424
618.509094	1.883018	0.002436
620.092834	1.882081	0.002448
621.676575	1.881144	0.002461
623.260132	1.880208	0.002473
624.843689	1.879273	0.002486
626.427124	1.878339	0.002499
628.010559	1.877406	0.002512
629.593872	1.876473	0.002526
631.177124	1.875541	0.00254
632.760254	1.874609	0.002553
634.343384	1.873679	0.002568
635.926331	1.872749	0.002582
637.509277	1.871819	0.002596
639.092102	1.87089	0.002611
640.674866	1.869961	0.002626
642.257507	1.869033	0.002641
643.840149	1.868105	0.002656
645.422668	1.867178	0.002671
647.005066	1.866251	0.002687
648.587402	1.865324	0.002702
650.169678	1.864398	0.002718
651.751831	1.863472	0.002734
653.333923	1.862546	0.002751
654.915894	1.861621	0.002767
656.497864	1.860695	0.002784
658.079712	1.85977	0.0028
659.661438	1.858845	0.002817
661.243042	1.85792	0.002834
662.824646	1.856995	0.002852
664.406128	1.856071	0.002869
665.987549	1.855146	0.002887
667.568848	1.854221	0.002904
669.150024	1.853296	0.002922
670.73114	1.852372	0.00294
672.312195	1.851447	0.002959
673.893127	1.850522	0.002977
675.473999	1.849597	0.002996
677.054749	1.848671	0.003014
678.635376	1.847746	0.003033
680.215942	1.846821	0.003052
681.796448	1.845895	0.003071
683.376831	1.844969	0.003091
684.957092	1.844043	0.00311
686.537231	1.843116	0.00313
688.117371	1.84219	0.00315
689.697388	1.841263	0.003169
691.277222	1.840335	0.00319
692.857056	1.839408	0.00321
694.436768	1.83848	0.00323
696.016357	1.837551	0.003251
697.595825	1.836622	0.003272
699.175232	1.835693	0.003292
700.754578	1.834763	0.003313
702.333801	1.833833	0.003335
703.912903	1.832903	0.003356
705.491821	1.831972	0.003377
707.07074	1.83104	0.003399
708.649536	1.830108	0.003421
710.22821	1.829175	0.003443
711.806824	1.828242	0.003465
713.385315	1.827308	0.003487
714.963684	1.826374	0.003509
716.541931	1.825439	0.003532
718.120117	1.824503	0.003554
719.698181	1.823567	0.003577
721.276123	1.82263	0.0036
722.853943	1.821692	0.003623
724.431702	1.820754	0.003647
726.009338	1.819815	0.00367
727.586853	1.818875	0.003693
729.164246	1.817935	0.003717
730.741577	1.816993	0.003741
732.318726	1.816051	0.003765
733.895874	1.815108	0.003789
735.472778	1.814165	0.003813
737.049683	1.813221	0.003838
738.626404	1.812275	0.003862
740.203003	1.811329	0.003887
741.779541	1.810382	0.003912
743.355957	1.809435	0.003937
744.932251	1.808486	0.003962
746.508423	1.807536	0.003988
748.084412	1.806586	0.004013
749.6604	1.805634	0.004039
751.236206	1.804682	0.004064
752.81189	1.803729	0.00409
754.387512	1.802775	0.004116
755.963013	1.80182	0.004143
757.53833	1.800864	0.004169
759.113586	1.799906	0.004195
760.68866	1.798948	0.004222
762.263672	1.797989	0.004249
763.838501	1.797029	0.004276
765.413269	1.796068	0.004303
766.987915	1.795106	0.00433
768.562378	1.794142	0.004358
770.136841	1.793178	0.004385
771.71106	1.792212	0.004413
773.285217	1.791246	0.004441
774.859253	1.790278	0.004469
776.433105	1.789309	0.004497
778.006836	1.788339	0.004525
779.580444	1.787368	0.004554
781.153992	1.786396	0.004582
782.727417	1.785423	0.004611
784.300659	1.784448	0.00464
785.873779	1.783472	0.004669
787.446777	1.782495	0.004698
789.019653	1.781517	0.004728
790.592407	1.780538	0.004757
792.164978	1.779557	0.004787
793.737427	1.778576	0.004817
795.309814	1.777593	0.004847
796.882019	1.776608	0.004877
798.454163	1.775623	0.004907
800.026062	1.774636	0.004938
801.5979	1.773648	0.004968
803.169556	1.772659	0.004999
804.74115	1.771668	0.00503
806.312561	1.770676	0.005061
807.88385	1.769683	0.005092
809.454956	1.768688	0.005124
811.026001	1.767692	0.005155
812.596863	1.766695	0.005187
814.167603	1.765696	0.005219
815.73822	1.764696	0.005251
817.308716	1.763695	0.005283
818.879028	1.762692	0.005316
820.449219	1.761688	0.005348
822.019226	1.760682	0.005381
823.589172	1.759675	0.005414
825.158997	1.758667	0.005447
826.728516	1.757657	0.00548
828.298035	1.756645	0.005513
829.867371	1.755633	0.005547
831.436646	1.754619	0.00558
833.005676	1.753603	0.005614
834.574524	1.752586	0.005648
836.143372	1.751567	0.005682
837.711914	1.750547	0.005717
839.280457	1.749526	0.005751
840.848755	1.748503	0.005786
842.416992	1.747478	0.005821
843.984985	1.746452	0.005856
845.552917	1.745425	0.005891
847.120605	1.744396	0.005926
848.688171	1.743365	0.005962
850.255676	1.742333	0.005997
851.822937	1.741299	0.006033
853.390137	1.740264	0.006069
854.957153	1.739227	0.006105
856.524048	1.738189	0.006142
858.090698	1.737149	0.006178
859.657227	1.736107	0.006215
861.223633	1.735064	0.006252
862.789856	1.734019	0.006289
864.355957	1.732973	0.006326
865.921875	1.731925	0.006363
867.487671	1.730875	0.006401
869.053345	1.729824	0.006439
870.618774	1.728771	0.006477
872.184082	1.727717	0.006515
873.749207	1.72666	0.006553
875.31427	1.725603	0.006591
876.879089	1.724543	0.00663
878.443726	1.723482	0.006669
880.008301	1.722419	0.006708
881.572632	1.721354	0.006747
883.136841	1.720288	0.006786
884.700867	1.71922	0.006826
886.264771	1.71815	0.006865
887.828491	1.717079	0.006905
889.39209	1.716006	0.006945
890.955444	1.714931	0.006986
892.518738	1.713854	0.007026
894.081848	1.712776	0.007067
895.644714	1.711696	0.007107
897.20752	1.710614	0.007148
898.77002	1.709531	0.007189
900.33252	1.708445	0.007231
901.894714	1.707358	0.007272
903.456848	1.706269	0.007314
905.018738	1.705178	0.007356
906.580444	1.704086	0.007398
908.14209	1.702992	0.00744
909.703491	1.701895	0.007483
911.264771	1.700798	0.007526
912.825867	1.699698	0.007568
914.386841	1.698596	0.007611
915.947571	1.697493	0.007655
917.508118	1.696387	0.007698
919.068481	1.69528	0.007742
920.628723	1.694171	0.007786
922.188782	1.693061	0.00783
923.748657	1.691948	0.007874
925.308411	1.690833	0.007918
926.867859	1.689717	0.007963
928.427246	1.688599	0.008008
929.98645	1.687478	0.008053
931.545532	1.686356	0.008098
933.104309	1.685232	0.008143
934.662964	1.684106	0.008189
936.221497	1.682978	0.008235
937.779785	1.681849	0.008281
939.337891	1.680717	0.008327
940.895874	1.679583	0.008373
942.453613	1.678448	0.00842
944.01123	1.67731	0.008467
945.568665	1.67617	0.008514
947.125854	1.675029	0.008561
948.682922	1.673886	0.008609
950.239868	1.67274	0.008656
951.796509	1.671593	0.008704
953.353027	1.670444	0.008752
954.909363	1.669292	0.008801
956.465515	1.668139	0.008849
958.021484	1.666983	0.008898
959.577271	1.665826	0.008947
961.132813	1.664667	0.008996
962.688171	1.663505	0.009045
964.243469	1.662342	0.009095
965.798462	1.661177	0.009145
967.353333	1.660009	0.009195
968.90802	1.65884	0.009245
970.462402	1.657668	0.009295
972.016724	1.656494	0.009346
973.570801	1.655319	0.009397
975.124695	1.654141	0.009448
976.678406	1.652961	0.009499
978.231934	1.651779	0.009551
979.785278	1.650595	0.009602
981.338501	1.649409	0.009654
982.891418	1.648221	0.009707
984.444153	1.647031	0.009759
985.996704	1.645838	0.009812
987.549011	1.644644	0.009865
989.101257	1.643447	0.009918
990.653198	1.642248	0.009971
992.204956	1.641047	0.010025
993.756653	1.639844	0.010078
995.307983	1.638639	0.010132
996.859192	1.637432	0.010187
998.410156	1.636222	0.010241
999.96106	1.63501	0.010296
