; -*- coding: cp1252; fmf-version: 1.0 -*-
[*reference]
title	: optical constants of Aluminium
short name	: Al
long name	: Al
creator	: simoji
created	: 2023-01-22 23:00:00+01:00
reference : Cheng et al. 2016
comment	: compiled from refractiveindex.info

[output parameter]
material type : isotropic

[*data definitions]
wavelength	:\lambda [nm]
n	:n(\lambda)
k	:k(\lambda)

[*data]
225.43 0.12397 1.99044
225.84 0.12431 1.99503
226.25 0.12466 1.99963
226.66 0.125 2.00423
227.08 0.12534 2.00883
227.49 0.12569 2.01343
227.91 0.12603 2.01806
228.33 0.12638 2.02269
228.75 0.12673 2.02733
229.18 0.12708 2.03198
229.6 0.12743 2.03667
230.03 0.12778 2.04133
230.45 0.12814 2.04605
230.88 0.12849 2.05078
231.31 0.12885 2.05553
231.75 0.12922 2.06027
232.18 0.12958 2.06504
232.62 0.12995 2.06983
233.05 0.13031 2.0746
233.49 0.13068 2.07942
233.93 0.13105 2.08427
234.37 0.13143 2.08911
234.82 0.1318 2.09396
235.26 0.13218 2.09885
235.71 0.13256 2.10373
236.16 0.13294 2.10864
236.61 0.13332 2.11355
237.06 0.13371 2.11851
237.52 0.1341 2.12346
237.97 0.13448 2.12842
238.43 0.13488 2.13342
238.89 0.13527 2.13843
239.35 0.13567 2.14346
239.81 0.13607 2.14849
240.28 0.13647 2.15354
240.75 0.13687 2.15862
241.21 0.13728 2.16369
241.68 0.13769 2.16881
242.16 0.1381 2.17393
242.63 0.13851 2.17908
243.11 0.13892 2.18424
243.58 0.13934 2.18941
244.06 0.13976 2.19461
244.54 0.14018 2.19981
245.03 0.14061 2.20506
245.51 0.14103 2.21029
246.0 0.14146 2.21554
246.49 0.14189 2.22084
246.98 0.14233 2.22615
247.47 0.14276 2.23148
247.97 0.1432 2.23681
248.47 0.14364 2.24217
248.96 0.14409 2.24755
249.47 0.14453 2.25295
249.97 0.14498 2.25839
250.47 0.14544 2.26381
250.98 0.14589 2.26927
251.49 0.14634 2.27473
252.0 0.1468 2.28021
252.51 0.14726 2.28569
253.03 0.14773 2.29125
253.55 0.1482 2.29679
254.07 0.14867 2.30237
254.59 0.14914 2.30797
255.11 0.14962 2.31361
255.64 0.1501 2.31923
256.17 0.15058 2.32488
256.7 0.15106 2.33056
257.23 0.15155 2.33623
257.76 0.15204 2.34197
258.3 0.15253 2.34769
258.84 0.15303 2.35345
259.38 0.15353 2.35925
259.92 0.15403 2.36506
260.47 0.15453 2.37088
261.02 0.15504 2.37673
261.57 0.15555 2.38258
262.12 0.15606 2.38846
262.68 0.15658 2.39439
263.24 0.1571 2.40033
263.8 0.15763 2.40627
264.36 0.15816 2.41226
264.92 0.15868 2.41826
265.49 0.15922 2.42426
266.06 0.15975 2.43031
266.63 0.16029 2.43637
267.21 0.16083 2.44245
267.78 0.16138 2.44858
268.36 0.16193 2.45471
268.95 0.16248 2.46089
269.53 0.16304 2.46708
270.12 0.1636 2.47329
270.71 0.16416 2.47955
271.3 0.16473 2.48581
271.9 0.1653 2.49209
272.49 0.16588 2.4984
273.09 0.16645 2.50472
273.7 0.16703 2.5111
274.3 0.16762 2.5175
274.91 0.16821 2.5239
275.52 0.1688 2.53033
276.13 0.16939 2.53677
276.75 0.17 2.54327
277.37 0.1706 2.5498
277.99 0.17121 2.55635
278.62 0.17182 2.56291
279.24 0.17243 2.56948
279.87 0.17305 2.57609
280.51 0.17367 2.58274
281.14 0.1743 2.5894
281.78 0.17493 2.59613
282.42 0.17557 2.60287
283.07 0.17621 2.60965
283.72 0.17686 2.61642
284.37 0.1775 2.62324
285.02 0.17816 2.63006
285.68 0.17881 2.63691
286.34 0.17947 2.64382
287.0 0.18014 2.65076
287.67 0.18081 2.65772
288.34 0.18148 2.66472
289.01 0.18216 2.67172
289.68 0.18284 2.67876
290.36 0.18353 2.68581
291.04 0.18422 2.69292
291.73 0.18492 2.70009
292.42 0.18563 2.70726
293.11 0.18634 2.71445
293.8 0.18704 2.72163
294.5 0.18777 2.72893
295.2 0.18849 2.73624
295.91 0.18921 2.74356
296.61 0.18994 2.75089
297.32 0.19066 2.75827
298.04 0.19142 2.76569
298.76 0.19215 2.77312
299.48 0.1929 2.78065
300.2 0.19368 2.78817
300.93 0.19442 2.79571
301.66 0.1952 2.80327
302.4 0.19597 2.81091
303.14 0.19675 2.81858
303.88 0.19754 2.82629
304.63 0.19832 2.834
305.38 0.19912 2.84173
306.13 0.19991 2.8495
306.89 0.20073 2.85732
307.65 0.20154 2.86521
308.42 0.20236 2.87311
309.19 0.20317 2.88106
309.96 0.20401 2.88902
310.74 0.20485 2.89704
311.52 0.20569 2.90508
312.3 0.20653 2.91317
313.09 0.20739 2.92127
313.88 0.20825 2.92943
314.68 0.20911 2.93762
315.48 0.20999 2.94584
316.29 0.21088 2.95411
317.1 0.21175 2.96242
317.91 0.21264 2.97076
318.73 0.21355 2.97916
319.55 0.21446 2.98757
320.37 0.21537 2.99606
321.2 0.21629 3.00456
322.04 0.21722 3.01312
322.88 0.21815 3.02172
323.72 0.21908 3.03036
324.57 0.22004 3.03905
325.42 0.221 3.04778
326.27 0.22197 3.05655
327.14 0.22293 3.06532
328.0 0.22391 3.07419
328.87 0.2249 3.08311
329.75 0.2259 3.09206
330.62 0.22689 3.10101
331.51 0.22791 3.11005
332.4 0.22893 3.11914
333.29 0.22994 3.12822
334.19 0.23097 3.13736
335.09 0.23202 3.14656
336.0 0.23306 3.15581
336.91 0.23413 3.16511
337.83 0.2352 3.17448
338.75 0.23627 3.18384
339.68 0.23735 3.19333
340.62 0.23845 3.20279
341.55 0.23956 3.21238
342.5 0.24066 3.22194
343.45 0.24178 3.23163
344.4 0.24291 3.2413
345.36 0.24405 3.25093
346.32 0.24521 3.26069
347.29 0.24636 3.27058
348.27 0.24753 3.28044
349.25 0.24871 3.29042
350.24 0.2499 3.30052
351.23 0.25109 3.3106
352.23 0.2523 3.32064
353.23 0.25351 3.33081
354.24 0.25475 3.34094
355.26 0.256 3.3512
356.28 0.25725 3.36157
357.3 0.2585 3.37192
358.34 0.25979 3.38238
359.37 0.26107 3.39281
360.42 0.26236 3.40336
361.47 0.26366 3.41402
362.53 0.26499 3.42465
363.59 0.26632 3.43539
364.66 0.26766 3.44611
365.74 0.26901 3.45693
366.82 0.27038 3.46787
367.91 0.27175 3.47891
369.0 0.27314 3.48993
370.1 0.27455 3.50105
371.21 0.27597 3.51214
372.32 0.27739 3.52334
373.45 0.27884 3.53465
374.57 0.28031 3.54592
375.71 0.28178 3.55744
376.85 0.28326 3.56879
378.0 0.28476 3.58038
379.16 0.28628 3.59193
380.32 0.2878 3.60372
381.49 0.28935 3.61535
382.67 0.2909 3.62721
383.85 0.29247 3.63917
385.04 0.29406 3.65109
386.24 0.29568 3.66312
387.45 0.29729 3.67524
388.67 0.29893 3.68732
389.89 0.30058 3.69951
391.12 0.30225 3.71179
392.36 0.30393 3.72416
393.6 0.30564 3.73663
394.85 0.30735 3.74919
396.12 0.3091 3.76185
397.39 0.31085 3.77447
398.66 0.31262 3.78718
399.95 0.31441 3.79998
401.24 0.31622 3.813
402.55 0.31806 3.82599
403.86 0.31991 3.83905
405.18 0.32176 3.85221
406.51 0.32365 3.86546
407.84 0.32557 3.87879
409.19 0.3275 3.89208
410.54 0.32944 3.90558
411.91 0.33142 3.91916
413.28 0.33341 3.93283
414.66 0.33543 3.94671
416.05 0.33748 3.96054
417.46 0.33954 3.97445
418.87 0.34161 3.98845
420.29 0.34372 4.00252
421.71 0.34587 4.01679
423.15 0.34802 4.03114
424.6 0.3502 4.04557
426.06 0.35239 4.05995
427.53 0.35464 4.07453
429.01 0.35689 4.08918
430.5 0.35918 4.1039
432.0 0.36149 4.11882
433.51 0.36383 4.13381
435.03 0.3662 4.14887
436.56 0.3686 4.164
438.11 0.37104 4.17931
439.66 0.3735 4.1947
441.22 0.37597 4.21015
442.8 0.3785 4.22579
444.39 0.38105 4.24149
445.99 0.38364 4.25725
447.6 0.38626 4.27319
449.22 0.3889 4.2892
450.85 0.39158 4.30538
452.5 0.3943 4.32163
454.15 0.39704 4.33793
455.82 0.39984 4.35441
457.51 0.40266 4.37094
459.2 0.40554 4.38776
460.91 0.40844 4.40452
462.63 0.41138 4.42156
464.36 0.41437 4.43866
466.11 0.41739 4.45569
467.86 0.42047 4.47312
469.64 0.42359 4.49059
471.42 0.42672 4.50811
473.22 0.42992 4.5258
475.04 0.43318 4.54364
476.86 0.43647 4.56163
478.7 0.43982 4.57979
480.56 0.44322 4.59798
482.43 0.44664 4.61633
484.31 0.45015 4.63494
486.21 0.4537 4.65348
488.13 0.45732 4.67238
490.06 0.46096 4.69121
492.0 0.46467 4.7103
493.96 0.46843 4.72953
495.94 0.47228 4.7489
497.93 0.47618 4.76841
499.94 0.48011 4.78806
501.96 0.48417 4.80795
504.0 0.48824 4.82787
506.06 0.49241 4.84814
508.13 0.49664 4.86833
510.22 0.50091 4.88875
512.33 0.5053 4.90941
514.46 0.50976 4.9302
516.6 0.51427 4.95111
518.76 0.51886 4.97214
520.94 0.52355 4.99351
523.14 0.52834 5.01489
525.36 0.53318 5.03659
527.59 0.53816 5.05842
529.85 0.54318 5.08036
532.12 0.54832 5.10251
534.41 0.55355 5.12479
536.73 0.55889 5.14736
539.06 0.56435 5.17015
541.42 0.56988 5.19295
543.79 0.57555 5.21606
546.19 0.58128 5.23917
548.6 0.58716 5.26268
551.04 0.59319 5.28629
553.5 0.59929 5.3101
555.98 0.60556 5.33411
558.49 0.61196 5.3584
561.01 0.61851 5.38289
563.56 0.62519 5.40757
566.14 0.63201 5.43235
568.73 0.63899 5.4575
571.36 0.6461 5.48265
574.0 0.65342 5.50817
576.67 0.66086 5.53378
579.37 0.66851 5.55976
582.09 0.67633 5.58582
584.83 0.68435 5.61207
587.6 0.69256 5.63867
590.4 0.70096 5.66536
593.23 0.70957 5.69232
596.08 0.71845 5.71954
598.96 0.72751 5.74694
601.87 0.73677 5.7745
604.8 0.74635 5.80242
607.77 0.75612 5.83024
610.76 0.76618 5.85859
613.78 0.77657 5.88711
616.84 0.78719 5.91571
619.92 0.79815 5.94467
623.04 0.8094 5.9737
626.18 0.82099 6.00308
629.36 0.8329 6.03255
632.57 0.84522 6.06229
635.82 0.85783 6.09212
639.09 0.87086 6.12212
642.41 0.88437 6.15241
645.75 0.89815 6.18269
649.13 0.9125 6.21318
652.55 0.92723 6.24386
656.0 0.94244 6.27465
659.49 0.95827 6.30565
663.02 0.97456 6.3367
666.58 0.99142 6.36765
670.18 1.00885 6.39889
673.83 1.02678 6.4298
677.51 1.04542 6.46103
681.23 1.06475 6.49213
685.0 1.08469 6.52308
688.8 1.10544 6.55393
692.65 1.12692 6.58475
696.54 1.14916 6.61525
700.48 1.1721 6.64536
704.46 1.19586 6.67511
708.48 1.22072 6.70464
712.55 1.24623 6.73351
716.67 1.27267 6.76178
720.84 1.30012 6.78935
725.05 1.32829 6.81589
729.32 1.35763 6.84172
733.63 1.38753 6.86617
738.0 1.41881 6.88956
742.42 1.45052 6.9113
746.89 1.4831 6.93142
751.42 1.51655 6.94967
756.0 1.55061 6.96595
760.64 1.58489 6.97968
765.33 1.61955 6.99085
770.09 1.65413 6.99915
774.9 1.68859 7.00438
779.77 1.72192 7.00614
784.71 1.75427 7.00432
789.71 1.78488 6.99877
794.77 1.81296 6.98941
799.9 1.83807 6.97607
805.09 1.85909 6.95904
810.35 1.87531 6.93857
815.69 1.88587 6.91538
821.09 1.88979 6.88965
826.56 1.88656 6.86302
832.11 1.87539 6.83616
837.73 1.85601 6.81056
843.43 1.82839 6.78793
849.21 1.79304 6.76979
855.06 1.75087 6.75748
861.0 1.70258 6.75239
867.02 1.64985 6.75544
873.13 1.59457 6.76703
879.32 1.53824 6.78728
885.6 1.48243 6.81583
891.97 1.42868 6.8518
898.44 1.37779 6.89437
904.99 1.33076 6.9419
911.65 1.28752 6.99369
918.4 1.24832 7.04828
925.26 1.21266 7.10504
932.21 1.18042 7.16271
939.27 1.15085 7.22077
946.44 1.12312 7.27925
953.72 1.09684 7.33792
961.12 1.0715 7.39616
968.63 1.04652 7.45468
976.25 1.02147 7.51368
984.0 0.99637 7.57296
991.87 0.97093 7.63287
999.87 0.94528 7.69295

